freqs [eV],Lambda [1/ps]
0.000000,0.005044
0.002500,0.005381
0.005000,0.006357
0.007500,0.007865
0.010000,0.009739
0.012500,0.011759
0.015000,0.013677
0.017500,0.015248
0.020000,0.016288
0.022500,0.016771
0.025000,0.016929
0.027500,0.017343
0.030000,0.018933
0.032500,0.022818
0.035000,0.030014
0.037500,0.041038
0.040000,0.055562
0.042500,0.072270
0.045000,0.089029
0.047500,0.103359
0.050000,0.113070
0.052500,0.116819
0.055000,0.114413
0.057500,0.106738
0.060000,0.095407
0.062500,0.082267
0.065000,0.068957
0.067500,0.056656
0.070000,0.046033
0.072500,0.037348
0.075000,0.030623
0.077500,0.025794
0.080000,0.022788
0.082500,0.021526
0.085000,0.021857
0.087500,0.023486
0.090000,0.025941
0.092500,0.028600
0.095000,0.030820
0.097500,0.032092
0.100000,0.032200
0.102500,0.031301
0.105000,0.029892
0.107500,0.028664
0.110000,0.028284
0.112500,0.029170
0.115000,0.031355
0.117500,0.034464
0.120000,0.037848
0.122500,0.040778
0.125000,0.042664
0.127500,0.043172
0.130000,0.042249
0.132500,0.040050
0.135000,0.036856
0.137500,0.033031
0.140000,0.029044
0.142500,0.025507
0.145000,0.023179
0.147500,0.022873
0.150000,0.025292
0.152500,0.030822
0.155000,0.039386
0.157500,0.050399
0.160000,0.062862
0.162500,0.075545
0.165000,0.087213
0.167500,0.096817
0.170000,0.103617
0.172500,0.107224
0.175000,0.107569
0.177500,0.104858
0.180000,0.099514
0.182500,0.092149
0.185000,0.083526
0.187500,0.074484
0.190000,0.065825
0.192500,0.058160
0.195000,0.051775
0.197500,0.046584
0.200000,0.042193
0.202500,0.038060
0.205000,0.033693
0.207500,0.028810
0.210000,0.023408
0.212500,0.017742
0.215000,0.012243
0.217500,0.007407
0.220000,0.003703
0.222500,0.001498
0.225000,0.001008
0.227500,0.002259
0.230000,0.005081
0.232500,0.009118
0.235000,0.013863
0.237500,0.018718
0.240000,0.023058
0.242500,0.026314
0.245000,0.028050
0.247500,0.028042
0.250000,0.026336
0.252500,0.023263
0.255000,0.019394
0.257500,0.015433
0.260000,0.012059
0.262500,0.009763
0.265000,0.008739
0.267500,0.008841
0.270000,0.009648
0.272500,0.010615
0.275000,0.011250
0.277500,0.011285
0.280000,0.010763
0.282500,0.010008
0.285000,0.009495
0.287500,0.009653
0.290000,0.010699
0.292500,0.012564
0.295000,0.014951
0.297500,0.017481
0.300000,0.019860
0.302500,0.021969
0.305000,0.023843
0.307500,0.025572
0.310000,0.027179
0.312500,0.028567
0.315000,0.029556
0.317500,0.029979
0.320000,0.029773
0.322500,0.029021
0.325000,0.027915
0.327500,0.026672
0.330000,0.025466
0.332500,0.024397
0.335000,0.023513
0.337500,0.022849
0.340000,0.022462
0.342500,0.022433
0.345000,0.022857
0.347500,0.023824
0.350000,0.025400
0.352500,0.027610
0.355000,0.030400
0.357500,0.033589
0.360000,0.036815
0.362500,0.039527
0.365000,0.041034
0.367500,0.040642
0.370000,0.037844
0.372500,0.032513
0.375000,0.025052
0.377500,0.016417
0.380000,0.007989
0.382500,0.001302
0.385000,-0.002314
0.387500,-0.002065
0.390000,0.002098
0.392500,0.009475
0.395000,0.018808
0.397500,0.028603
0.400000,0.037477
0.402500,0.044423
0.405000,0.048953
0.407500,0.051098
0.410000,0.051293
0.412500,0.050197
0.415000,0.048482
0.417500,0.046658
0.420000,0.044961
0.422500,0.043346
0.425000,0.041562
0.427500,0.039280
0.430000,0.036232
0.432500,0.032318
0.435000,0.027659
0.437500,0.022588
0.440000,0.017589
0.442500,0.013191
0.445000,0.009857
0.447500,0.007908
0.450000,0.007494
0.452500,0.008623
0.455000,0.011209
0.457500,0.015085
0.460000,0.019971
0.462500,0.025394
0.465000,0.030650
0.467500,0.034856
0.470000,0.037113
0.472500,0.036764
0.475000,0.033607
0.477500,0.028001
0.480000,0.020771
0.482500,0.012967
0.485000,0.005569
0.487500,-0.000748
0.490000,-0.005692
0.492500,-0.009295
0.495000,-0.011763
0.497500,-0.013314
0.500000,-0.014070
0.502500,-0.014005
0.505000,-0.012944
0.507500,-0.010594
0.510000,-0.006615
0.512500,-0.000741
0.515000,0.007082
0.517500,0.016578
0.520000,0.027110
0.522500,0.037796
0.525000,0.047744
0.527500,0.056322
0.530000,0.063347
0.532500,0.069093
0.535000,0.074108
0.537500,0.078918
0.540000,0.083738
0.542500,0.088313
0.545000,0.091952
0.547500,0.093705
0.550000,0.092630
0.552500,0.088058
0.555000,0.079787
0.557500,0.068185
0.560000,0.054175
0.562500,0.039114
0.565000,0.024552
0.567500,0.011935
0.570000,0.002310
0.572500,-0.003881
0.575000,-0.006852
0.577500,-0.007348
0.580000,-0.006381
0.582500,-0.004928
0.585000,-0.003677
0.587500,-0.002904
0.590000,-0.002495
0.592500,-0.002079
0.595000,-0.001207
0.597500,0.000481
0.600000,0.003167
0.602500,0.006819
0.605000,0.011221
0.607500,0.016039
0.610000,0.020894
0.612500,0.025461
0.615000,0.029552
0.617500,0.033182
0.620000,0.036564
0.622500,0.040047
0.625000,0.043973
0.627500,0.048527
0.630000,0.053606
0.632500,0.058785
0.635000,0.063367
0.637500,0.066529
0.640000,0.067503
0.642500,0.065758
0.645000,0.061133
0.647500,0.053883
0.650000,0.044636
0.652500,0.034256
0.655000,0.023648
0.657500,0.013570
0.660000,0.004510
0.662500,-0.003332
0.665000,-0.009944
0.667500,-0.015348
0.670000,-0.019449
0.672500,-0.021974
0.675000,-0.022513
0.677500,-0.020657
0.680000,-0.016168
0.682500,-0.009112
0.685000,0.000091
0.687500,0.010699
0.690000,0.021759
0.692500,0.032241
0.695000,0.041183
0.697500,0.047816
0.700000,0.051661
0.702500,0.052587
0.705000,0.050805
0.707500,0.046814
0.710000,0.041276
0.712500,0.034880
0.715000,0.028217
0.717500,0.021706
0.720000,0.015587
0.722500,0.009986
0.725000,0.004997
0.727500,0.000777
0.730000,-0.002428
0.732500,-0.004308
0.735000,-0.004587
0.737500,-0.003141
0.740000,-0.000091
0.742500,0.004171
0.745000,0.009038
0.747500,0.013814
0.750000,0.017860
0.752500,0.020728
0.755000,0.022232
0.757500,0.022460
0.760000,0.021719
0.762500,0.020433
0.765000,0.019040
0.767500,0.017897
0.770000,0.017237
0.772500,0.017168
0.775000,0.017717
0.777500,0.018874
0.780000,0.020615
0.782500,0.022893
0.785000,0.025608
0.787500,0.028586
0.790000,0.031607
0.792500,0.034467
0.795000,0.037073
0.797500,0.039504
0.800000,0.042008
0.802500,0.044911
0.805000,0.048461
0.807500,0.052666
0.810000,0.057193
0.812500,0.061385
0.815000,0.064390
0.817500,0.065383
0.820000,0.063786
0.822500,0.059437
0.825000,0.052651
0.827500,0.044170
0.830000,0.035016
0.832500,0.026305
0.835000,0.019051
0.837500,0.014000
0.840000,0.011510
0.842500,0.011495
0.845000,0.013450
0.847500,0.016544
0.850000,0.019791
0.852500,0.022250
0.855000,0.023211
0.857500,0.022316
0.860000,0.019587
0.862500,0.015347
0.865000,0.010104
0.867500,0.004407
0.870000,-0.001261
0.872500,-0.006541
0.875000,-0.011217
0.877500,-0.015221
0.880000,-0.018605
0.882500,-0.021516
0.885000,-0.024133
0.887500,-0.026596
0.890000,-0.028928
0.892500,-0.030980
0.895000,-0.032434
0.897500,-0.032865
0.900000,-0.031857
0.902500,-0.029145
0.905000,-0.024726
0.907500,-0.018905
0.910000,-0.012238
0.912500,-0.005395
0.915000,0.001018
0.917500,0.006613
0.920000,0.011285
0.922500,0.015181
0.925000,0.018585
0.927500,0.021780
0.930000,0.024947
0.932500,0.028122
0.935000,0.031220
0.937500,0.034092
0.940000,0.036583
0.942500,0.038573
0.945000,0.039978
0.947500,0.040734
0.950000,0.040771
0.952500,0.040003
0.955000,0.038347
0.957500,0.035752
0.960000,0.032248
0.962500,0.027981
0.965000,0.023241
0.967500,0.018465
0.970000,0.014210
0.972500,0.011082
0.975000,0.009630
0.977500,0.010206
0.980000,0.012835
0.982500,0.017149
0.985000,0.022422
0.987500,0.027698
0.990000,0.031995
0.992500,0.034508
0.995000,0.034760
0.997500,0.032667
1.000000,0.028528
1.002500,0.022966
1.005000,0.016819
1.007500,0.011014
1.010000,0.006399
1.012500,0.003579
1.015000,0.002786
1.017500,0.003829
1.020000,0.006162
1.022500,0.009037
1.025000,0.011689
1.027500,0.013492
1.030000,0.014041
1.032500,0.013162
1.035000,0.010886
1.037500,0.007413
1.040000,0.003085
1.042500,-0.001617
1.045000,-0.006113
1.047500,-0.009771
1.050000,-0.012001
1.052500,-0.012343
1.055000,-0.010551
1.057500,-0.006625
1.060000,-0.000809
1.062500,0.006449
1.065000,0.014565
1.067500,0.022890
1.070000,0.030799
1.072500,0.037771
1.075000,0.043438
1.077500,0.047608
1.080000,0.050216
1.082500,0.051249
1.085000,0.050668
1.087500,0.048380
1.090000,0.044277
1.092500,0.038344
1.095000,0.030765
1.097500,0.021977
1.100000,0.012641
1.102500,0.003521
1.105000,-0.004653
1.107500,-0.011304
1.110000,-0.016058
1.112500,-0.018740
1.115000,-0.019345
1.117500,-0.018026
1.120000,-0.015089
1.122500,-0.011000
1.125000,-0.006358
1.127500,-0.001827
1.130000,0.001971
1.132500,0.004565
1.135000,0.005722
1.137500,0.005484
1.140000,0.004157
1.142500,0.002267
1.145000,0.000488
1.147500,-0.000470
1.150000,0.000018
1.152500,0.002353
1.155000,0.006599
1.157500,0.012442
1.160000,0.019230
1.162500,0.026111
1.165000,0.032215
1.167500,0.036857
1.170000,0.039672
1.172500,0.040675
1.175000,0.040215
1.177500,0.038839
1.180000,0.037125
1.182500,0.035514
1.185000,0.034216
1.187500,0.033216
1.190000,0.032361
1.192500,0.031494
1.195000,0.030574
1.197500,0.029719
1.200000,0.029175
1.202500,0.029233
1.205000,0.030126
1.207500,0.031970
1.210000,0.034739
1.212500,0.038283
1.215000,0.042350
1.217500,0.046608
1.220000,0.050680
1.222500,0.054181
1.225000,0.056777
1.227500,0.058242
1.230000,0.058496
1.232500,0.057603
1.235000,0.055721
1.237500,0.053038
1.240000,0.049710
1.242500,0.045847
1.245000,0.041545
1.247500,0.036950
1.250000,0.032316
1.252500,0.028007
1.255000,0.024442
1.257500,0.021971
1.260000,0.020750
1.262500,0.020654
1.265000,0.021275
1.267500,0.022008
1.270000,0.022197
1.272500,0.021302
1.275000,0.019028
1.277500,0.015388
1.280000,0.010694
1.282500,0.005484
1.285000,0.000416
1.287500,-0.003846
1.290000,-0.006745
1.292500,-0.007915
1.295000,-0.007234
1.297500,-0.004835
1.300000,-0.001076
1.302500,0.003540
1.305000,0.008457
1.307500,0.013160
1.310000,0.017249
1.312500,0.020480
1.315000,0.022770
1.317500,0.024183
1.320000,0.024893
1.322500,0.025134
1.325000,0.025146
1.327500,0.025117
1.330000,0.025149
1.332500,0.025239
1.335000,0.025304
1.337500,0.025223
1.340000,0.024894
1.342500,0.024277
1.345000,0.023405
1.347500,0.022369
1.350000,0.021272
1.352500,0.020189
1.355000,0.019147
1.357500,0.018136
1.360000,0.017142
1.362500,0.016183
1.365000,0.015326
1.367500,0.014663
1.370000,0.014274
1.372500,0.014187
1.375000,0.014360
1.377500,0.014696
1.380000,0.015085
1.382500,0.015452
1.385000,0.015799
1.387500,0.016208
1.390000,0.016830
1.392500,0.017843
1.395000,0.019395
1.397500,0.021558
1.400000,0.024295
1.402500,0.027454
1.405000,0.030779
1.407500,0.033942
1.410000,0.036577
1.412500,0.038324
1.415000,0.038877
1.417500,0.038038
1.420000,0.035761
1.422500,0.032186
1.425000,0.027638
1.427500,0.022600
1.430000,0.017642
1.432500,0.013330
1.435000,0.010125
1.437500,0.008298
1.440000,0.007871
1.442500,0.008628
1.445000,0.010174
1.447500,0.012051
1.450000,0.013862
1.452500,0.015377
1.455000,0.016574
1.457500,0.017611
1.460000,0.018725
1.462500,0.020104
1.465000,0.021762
1.467500,0.023470
1.470000,0.024786
1.472500,0.025169
1.475000,0.024162
1.477500,0.021575
1.480000,0.017606
1.482500,0.012835
1.485000,0.008098
1.487500,0.004281
1.490000,0.002104
1.492500,0.001968
1.495000,0.003899
1.497500,0.007601
1.500000,0.012569
1.502500,0.018220
1.505000,0.023998
1.507500,0.029432
1.510000,0.034146
1.512500,0.037850
1.515000,0.040323
1.517500,0.041421
1.520000,0.041107
1.522500,0.039474
1.525000,0.036776
1.527500,0.033405
1.530000,0.029849
1.532500,0.026608
1.535000,0.024114
1.537500,0.022670
1.540000,0.022421
1.542500,0.023358
1.545000,0.025338
1.547500,0.028106
1.550000,0.031305
1.552500,0.034495
1.555000,0.037187
1.557500,0.038911
1.560000,0.039311
1.562500,0.038242
1.565000,0.035831
1.567500,0.032458
1.570000,0.028660
1.572500,0.024971
1.575000,0.021765
1.577500,0.019150
1.580000,0.016965
1.582500,0.014876
1.585000,0.012523
1.587500,0.009669
1.590000,0.006270
1.592500,0.002470
1.595000,-0.001481
1.597500,-0.005325
1.600000,-0.008856
1.602500,-0.011920
1.605000,-0.014364
1.607500,-0.015988
1.610000,-0.016534
1.612500,-0.015757
1.615000,-0.013532
1.617500,-0.009965
1.620000,-0.005431
1.622500,-0.000517
1.625000,0.004108
1.627500,0.007861
1.630000,0.010378
1.632500,0.011578
1.635000,0.011645
1.637500,0.010961
1.640000,0.010015
1.642500,0.009310
1.645000,0.009292
1.647500,0.010279
1.650000,0.012409
1.652500,0.015607
1.655000,0.019592
1.657500,0.023911
1.660000,0.028022
1.662500,0.031382
1.665000,0.033527
1.667500,0.034133
1.670000,0.033034
1.672500,0.030243
1.675000,0.025948
1.677500,0.020518
1.680000,0.014496
1.682500,0.008558
1.685000,0.003427
1.687500,-0.000260
1.690000,-0.002083
1.692500,-0.001944
1.695000,-0.000080
1.697500,0.003013
1.700000,0.006738
1.702500,0.010563
1.705000,0.014170
1.707500,0.017508
1.710000,0.020768
1.712500,0.024275
1.715000,0.028343
1.717500,0.033120
1.720000,0.038476
1.722500,0.043973
1.725000,0.048915
1.727500,0.052501
1.730000,0.054012
1.732500,0.053003
1.735000,0.049421
1.737500,0.043621
1.740000,0.036279
1.742500,0.028253
1.745000,0.020416
1.747500,0.013527
1.750000,0.008139
1.752500,0.004564
1.755000,0.002860
1.757500,0.002856
1.760000,0.004195
1.762500,0.006393
1.765000,0.008918
1.767500,0.011268
1.770000,0.013033
1.772500,0.013934
1.775000,0.013837
1.777500,0.012738
1.780000,0.010752
1.782500,0.008086
1.785000,0.005013
1.787500,0.001841
1.790000,-0.001137
1.792500,-0.003686
1.795000,-0.005677
1.797500,-0.007091
1.800000,-0.008004
1.802500,-0.008546
1.805000,-0.008850
1.807500,-0.009010
1.810000,-0.009059
1.812500,-0.008951
1.815000,-0.008570
1.817500,-0.007752
1.820000,-0.006327
1.822500,-0.004183
1.825000,-0.001327
1.827500,0.002084
1.830000,0.005752
1.832500,0.009305
1.835000,0.012387
1.837500,0.014740
1.840000,0.016245
1.842500,0.016906
1.845000,0.016806
1.847500,0.016058
1.850000,0.014788
1.852500,0.013142
1.855000,0.011314
1.857500,0.009559
1.860000,0.008163
1.862500,0.007375
1.865000,0.007337
1.867500,0.008021
1.870000,0.009228
1.872500,0.010639
1.875000,0.011894
1.877500,0.012692
1.880000,0.012847
1.882500,0.012312
1.885000,0.011155
1.887500,0.009523
1.890000,0.007598
1.892500,0.005578
1.895000,0.003665
1.897500,0.002058
1.900000,0.000940
1.902500,0.000453
1.905000,0.000666
1.907500,0.001550
1.910000,0.002965
1.912500,0.004680
1.915000,0.006421
1.917500,0.007928
1.920000,0.009025
1.922500,0.009660
1.925000,0.009916
1.927500,0.009980
1.930000,0.010080
1.932500,0.010413
1.935000,0.011082
1.937500,0.012063
1.940000,0.013216
1.942500,0.014320
1.945000,0.015134
1.947500,0.015446
1.950000,0.015107
1.952500,0.014045
1.955000,0.012261
1.957500,0.009813
1.960000,0.006809
1.962500,0.003412
1.965000,-0.000155
1.967500,-0.003595
1.970000,-0.006544
1.972500,-0.008598
1.975000,-0.009371
1.977500,-0.008565
1.980000,-0.006045
1.982500,-0.001893
1.985000,0.003578
1.987500,0.009866
1.990000,0.016359
1.992500,0.022444
1.995000,0.027613
1.997500,0.031540
2.000000,0.034110
